Stopping powers for water
Temin(Mev), Tpmin(MeV), Tpmax(Mev), dtp(Mev), ndata
0.100000 0.500000 350.000000 0.500000 700
====================================
Energy(MeV), Sw(Mev/cm), Mw(Mev/cm), Lw(Mev/cm) b
0.500000 407.743201 0.000000 433.815494 0.255445
1.000000 267.410000 0.000000 272.533240 0.322395
1.500000 202.083797 0.000000 203.458535 0.272453
2.000000 163.249000 0.000000 164.222834 0.248757
2.500000 137.426200 0.000000 138.623585 0.233911
3.000000 119.118000 0.000000 120.473632 0.223353
3.500000 105.566269 0.000000 106.868842 0.215278
4.000000 95.133300 0.000000 96.255360 0.208802
4.500000 86.823145 0.000000 87.722384 0.203433
5.000000 79.979100 0.000000 80.698774 0.198871
5.500000 74.188140 0.000000 74.807243 0.194921
6.000000 69.228800 0.000000 69.788020 0.191447
6.500000 64.948356 0.000000 65.456090 0.188356
7.000000 61.220000 0.000000 61.675930 0.185576
7.500000 57.942095 0.000000 58.345877 0.183055
8.000000 55.027000 0.000000 55.388104 0.180751
8.500000 52.408147 0.000000 52.741966 0.178633
9.000000 50.044000 0.000000 50.359476 0.176675
9.500000 47.902996 0.000000 48.202140 0.174856
10.000000 45.958700 0.000000 46.238703 0.173158
10.500000 44.186697 0.000000 44.443513 0.171567
11.000000 42.558600 0.000000 42.795305 0.170072
11.500000 41.051567 0.000000 41.276300 0.168662
12.000000 39.654900 0.000000 39.871511 0.167329
12.500000 38.360121 0.000000 38.568212 0.166065
13.000000 37.156000 0.000000 37.355522 0.164864
13.500000 36.032250 0.000000 36.224082 0.163719
14.000000 34.980900 0.000000 35.165796 0.162627
14.500000 33.995186 0.000000 34.173622 0.161583
15.000000 33.069100 0.000000 33.241405 0.160583
15.500000 32.197319 0.000000 32.363740 0.159623
16.000000 31.375100 0.000000 31.535861 0.158701
16.500000 30.598206 0.000000 30.753550 0.157814
17.000000 29.862800 0.000000 30.013057 0.156960
17.500000 29.165475 0.000000 29.311037 0.156136
18.000000 28.503300 0.000000 28.644498 0.155340
18.500000 27.873664 0.000000 28.010753 0.154571
19.000000 27.274200 0.000000 27.407386 0.153826
19.500000 26.702749 0.000000 26.832211 0.153105
20.000000 26.157300 0.000000 26.283254 0.152406
20.500000 25.636039 0.000000 25.758719 0.151728
21.000000 25.137400 0.000000 25.256977 0.151069
21.500000 24.659950 0.000000 24.776538 0.150429
22.000000 24.202300 0.000000 24.316044 0.149806
22.500000 23.763181 0.000000 23.874250 0.149200
23.000000 23.341500 0.000000 23.450014 0.148610
23.500000 22.936246 0.000000 23.042286 0.148035
24.000000 22.546400 0.000000 22.650099 0.147474
24.500000 22.171034 0.000000 22.272563 0.146926
25.000000 21.809400 0.000000 21.908852 0.146392
25.500000 21.460804 0.000000 21.558204 0.145870
26.000000 21.124500 0.000000 21.219914 0.145360
26.500000 20.799792 0.000000 20.893323 0.144862
27.000000 20.486100 0.000000 20.577823 0.144374
27.500000 20.182887 0.000000 20.272845 0.143897
28.000000 19.889600 0.000000 19.977861 0.143430
28.500000 19.605719 0.000000 19.692377 0.142972
29.000000 19.330800 0.000000 19.415931 0.142524
29.500000 19.064430 0.000000 19.148091 0.142084
30.000000 18.806200 0.000000 18.888454 0.141653
30.500000 18.555729 0.000000 18.636640 0.141230
31.000000 18.312700 0.000000 18.392293 0.140815
31.500000 18.076806 0.000000 18.155079 0.140408
32.000000 17.847700 0.000000 17.924684 0.140008
32.500000 17.625054 0.000000 17.700812 0.139616
33.000000 17.408600 0.000000 17.483183 0.139230
33.500000 17.198095 0.000000 17.271535 0.138851
34.000000 16.993300 0.000000 17.065620 0.138478
34.500000 16.793981 0.000000 16.865202 0.138112
35.000000 16.599900 0.000000 16.670061 0.137751
35.500000 16.410836 0.000000 16.479986 0.137396
36.000000 16.226600 0.000000 16.294779 0.137047
36.500000 16.047016 0.000000 16.114251 0.136704
37.000000 15.871900 0.000000 15.938223 0.136366
37.500000 15.701079 0.000000 15.766526 0.136033
38.000000 15.534400 0.000000 15.598999 0.135705
38.500000 15.371720 0.000000 15.435488 0.135382
39.000000 15.212900 0.000000 15.275849 0.135063
39.500000 15.057806 0.000000 15.119942 0.134749
40.000000 14.906300 0.000000 14.967635 0.134440
40.500000 14.758247 0.000000 14.818804 0.134135
41.000000 14.613500 0.000000 14.673327 0.133835
41.500000 14.471935 0.000000 14.531091 0.133538
42.000000 14.333500 0.000000 14.391987 0.133245
42.500000 14.198138 0.000000 14.255909 0.132957
43.000000 14.065700 0.000000 14.122759 0.132672
43.500000 13.936039 0.000000 13.992441 0.132391
44.000000 13.809100 0.000000 13.864865 0.132113
44.500000 13.684828 0.000000 13.739942 0.124256
45.000000 13.563100 0.002317 13.615272 0.091513
45.500000 13.443801 0.012002 13.485725 0.066287
46.000000 13.326900 0.021379 13.358899 0.066207
46.500000 13.212368 0.030461 13.234709 0.066127
47.000000 13.100100 0.039259 13.113072 0.066049
47.500000 12.989992 0.047785 12.993910 0.065971
48.000000 12.882000 0.056048 12.877147 0.065893
48.500000 12.776090 0.064058 12.762711 0.065817
49.000000 12.672200 0.071826 12.650532 0.065741
49.500000 12.570261 0.079359 12.540544 0.065666
50.000000 12.470200 0.086667 12.432683 0.065592
50.500000 12.371954 0.093758 12.326886 0.065518
51.000000 12.275500 0.100640 12.223096 0.065445
51.500000 12.180811 0.107320 12.121254 0.065373
52.000000 12.087800 0.113805 12.021306 0.065301
52.500000 11.996391 0.120103 11.923199 0.065230
53.000000 11.906600 0.126220 11.826882 0.065160
53.500000 11.818435 0.132162 11.732306 0.065090
54.000000 11.731800 0.137935 11.639425 0.065021
54.500000 11.646596 0.143546 11.548192 0.064952
55.000000 11.562800 0.148999 11.458564 0.064884
55.500000 11.480406 0.154299 11.370498 0.064817
56.000000 11.399400 0.159453 11.283954 0.064750
56.500000 11.319754 0.164465 11.198892 0.064684
57.000000 11.241400 0.169339 11.115274 0.064619
57.500000 11.164279 0.174080 11.033063 0.064553
58.000000 11.088400 0.178692 10.952224 0.064489
58.500000 11.013765 0.183180 10.872723 0.064425
59.000000 10.940300 0.187547 10.794525 0.064361
59.500000 10.867937 0.191798 10.717600 0.064299
60.000000 10.796700 0.195936 10.641916 0.064236
60.500000 10.726610 0.199964 10.567444 0.064174
61.000000 10.657600 0.203886 10.494153 0.064113
61.500000 10.589600 0.207705 10.422016 0.064052
62.000000 10.522600 0.211425 10.351005 0.063991
62.500000 10.456602 0.215048 10.281095 0.063931
63.000000 10.391600 0.218577 10.212260 0.063872
63.500000 10.327579 0.222015 10.144475 0.063813
64.000000 10.264500 0.225366 10.077715 0.063754
64.500000 10.202320 0.228630 10.011958 0.063696
65.000000 10.141000 0.231812 9.947181 0.063639
65.500000 10.080517 0.234913 9.883362 0.063581
66.000000 10.020900 0.237936 9.820480 0.063524
66.500000 9.962169 0.240883 9.758514 0.063468
67.000000 9.904270 0.243757 9.697444 0.063412
67.500000 9.847144 0.246558 9.637251 0.063357
68.000000 9.790790 0.249290 9.577916 0.063301
68.500000 9.735212 0.251954 9.519420 0.063247
69.000000 9.680390 0.254553 9.461746 0.063192
69.500000 9.626300 0.257088 9.404877 0.063139
70.000000 9.572930 0.259560 9.348795 0.063085
70.500000 9.520269 0.261972 9.293484 0.063032
71.000000 9.468300 0.264325 9.238928 0.062979
71.500000 9.417008 0.266622 9.185112 0.062927
72.000000 9.366380 0.268862 9.132021 0.062875
72.500000 9.316404 0.271049 9.079640 0.062823
73.000000 9.267070 0.273183 9.027955 0.062772
73.500000 9.218367 0.275265 8.976951 0.062721
74.000000 9.170280 0.277298 8.926617 0.062671
74.500000 9.122795 0.279282 8.876937 0.062620
75.000000 9.075900 0.281219 8.827900 0.062571
75.500000 9.029585 0.283110 8.779494 0.062521
76.000000 8.983840 0.284956 8.731705 0.062472
76.500000 8.938656 0.286758 8.684522 0.062423
77.000000 8.894020 0.288518 8.637934 0.062375
77.500000 8.849919 0.290236 8.591929 0.062327
78.000000 8.806350 0.291914 8.546496 0.062279
78.500000 8.763308 0.293553 8.501625 0.062231
79.000000 8.720780 0.295153 8.457306 0.062184
79.500000 8.678754 0.296716 8.413527 0.062137
80.000000 8.637220 0.298242 8.370280 0.062091
80.500000 8.596168 0.299733 8.327554 0.062045
81.000000 8.555590 0.301189 8.285340 0.061999
81.500000 8.515481 0.302611 8.243629 0.061953
82.000000 8.475830 0.304000 8.202412 0.061908
82.500000 8.436629 0.305357 8.161680 0.061863
83.000000 8.397870 0.306683 8.121425 0.061818
83.500000 8.359547 0.307978 8.081638 0.061774
84.000000 8.321650 0.309243 8.042311 0.061730
84.500000 8.284172 0.310479 8.003435 0.061686
85.000000 8.247110 0.311686 7.965005 0.061642
85.500000 8.210460 0.312866 7.927010 0.061599
86.000000 8.174210 0.314018 7.889445 0.061556
86.500000 8.138347 0.315144 7.852302 0.061514
87.000000 8.102870 0.316244 7.815574 0.061471
87.500000 8.067777 0.317319 7.779253 0.061429
88.000000 8.033060 0.318369 7.743334 0.061387
88.500000 7.998710 0.319395 7.707809 0.061346
89.000000 7.964720 0.320397 7.672672 0.061304
89.500000 7.931084 0.321377 7.637916 0.061263
90.000000 7.897800 0.322334 7.603536 0.061223
90.500000 7.864864 0.323269 7.569525 0.061182
91.000000 7.832270 0.324182 7.535878 0.061142
91.500000 7.800009 0.325075 7.502588 0.061102
92.000000 7.768080 0.325947 7.469650 0.061062
92.500000 7.736480 0.326799 7.437058 0.061023
93.000000 7.705200 0.327631 7.404807 0.060983
93.500000 7.674231 0.328444 7.372891 0.060944
94.000000 7.643570 0.329239 7.341305 0.060905
94.500000 7.613214 0.330015 7.310045 0.060867
95.000000 7.583160 0.330774 7.279104 0.060829
95.500000 7.553404 0.331514 7.248479 0.060791
96.000000 7.523940 0.332238 7.218164 0.060753
96.500000 7.494763 0.332945 7.188155 0.060715
97.000000 7.465870 0.333636 7.158447 0.060678
97.500000 7.437259 0.334310 7.129035 0.060641
98.000000 7.408920 0.334969 7.099915 0.060604
98.500000 7.380846 0.335613 7.071083 0.060567
99.000000 7.353040 0.336241 7.042534 0.060531
99.500000 7.325505 0.336855 7.014265 0.060495
100.000000 7.298230 0.337454 6.986271 0.060459
100.500000 7.271205 0.338040 6.958548 0.060423
101.000000 7.244430 0.338612 6.931092 0.060387
101.500000 7.217907 0.339170 6.903899 0.060352
102.000000 7.191630 0.339715 6.876966 0.060317
102.500000 7.165591 0.340247 6.850289 0.060282
103.000000 7.139790 0.340766 6.823864 0.060247
103.500000 7.114228 0.341273 6.797688 0.060213
104.000000 7.088900 0.341768 6.771756 0.060179
104.500000 7.063802 0.342251 6.746067 0.060145
105.000000 7.038930 0.342723 6.720616 0.060111
105.500000 7.014280 0.343183 6.695399 0.060077
106.000000 6.989850 0.343632 6.670415 0.060044
106.500000 6.965638 0.344070 6.645659 0.060010
107.000000 6.941640 0.344498 6.621129 0.059977
107.500000 6.917851 0.344915 6.596820 0.059945
108.000000 6.894270 0.345321 6.572732 0.059912
108.500000 6.870894 0.345718 6.548859 0.059879
109.000000 6.847720 0.346105 6.525200 0.059847
109.500000 6.824746 0.346482 6.501752 0.059815
110.000000 6.801970 0.346850 6.478511 0.059783
110.500000 6.779389 0.347208 6.455475 0.059752
111.000000 6.757000 0.347557 6.432642 0.059720
111.500000 6.734802 0.347898 6.410008 0.059689
112.000000 6.712790 0.348230 6.387571 0.059658
112.500000 6.690963 0.348553 6.365329 0.059627
113.000000 6.669320 0.348868 6.343279 0.059596
113.500000 6.647861 0.349175 6.321418 0.059565
114.000000 6.626580 0.349474 6.299744 0.059535
114.500000 6.605469 0.349764 6.278255 0.059505
115.000000 6.584530 0.350048 6.256948 0.059475
115.500000 6.563765 0.350323 6.235821 0.059445
116.000000 6.543170 0.350591 6.214872 0.059415
116.500000 6.522742 0.350852 6.194098 0.059386
117.000000 6.502480 0.351106 6.173497 0.059357
117.500000 6.482384 0.351353 6.153068 0.059327
118.000000 6.462450 0.351593 6.132807 0.059298
118.500000 6.442672 0.351826 6.112714 0.059270
119.000000 6.423050 0.352052 6.092785 0.059241
119.500000 6.403583 0.352273 6.073018 0.059213
120.000000 6.384270 0.352486 6.053413 0.059184
120.500000 6.365109 0.352694 6.033966 0.059156
121.000000 6.346100 0.352896 6.014677 0.059128
121.500000 6.327242 0.353091 5.995542 0.059100
122.000000 6.308530 0.353281 5.976560 0.059073
122.500000 6.289958 0.353465 5.957730 0.059045
123.000000 6.271530 0.353643 5.939050 0.059018
123.500000 6.253250 0.353816 5.920516 0.058991
124.000000 6.235110 0.353983 5.902129 0.058964
124.500000 6.217102 0.354145 5.883887 0.058937
125.000000 6.199230 0.354302 5.865786 0.058910
125.500000 6.181497 0.354454 5.847827 0.058884
126.000000 6.163900 0.354601 5.830007 0.058858
126.500000 6.146435 0.354742 5.812325 0.058831
127.000000 6.129100 0.354879 5.794778 0.058805
127.500000 6.111892 0.355011 5.777366 0.058779
128.000000 6.094810 0.355139 5.760087 0.058754
128.500000 6.077851 0.355262 5.742940 0.058728
129.000000 6.061020 0.355381 5.725922 0.058703
129.500000 6.044319 0.355495 5.709033 0.058677
130.000000 6.027740 0.355605 5.692270 0.058652
130.500000 6.011277 0.355710 5.675634 0.058627
131.000000 5.994930 0.355812 5.659121 0.058602
131.500000 5.978701 0.355909 5.642732 0.058578
132.000000 5.962590 0.356002 5.626463 0.058553
132.500000 5.946598 0.356092 5.610315 0.058529
133.000000 5.930720 0.356178 5.594286 0.058505
133.500000 5.914953 0.356259 5.578373 0.058480
134.000000 5.899300 0.356338 5.562578 0.058456
134.500000 5.883761 0.356412 5.546897 0.058433
135.000000 5.868330 0.356483 5.531329 0.058409
135.500000 5.853001 0.356550 5.515874 0.058385
136.000000 5.837780 0.356614 5.500530 0.058362
136.500000 5.822673 0.356675 5.485296 0.058339
137.000000 5.807670 0.356732 5.470171 0.058316
137.500000 5.792764 0.356787 5.455154 0.058293
138.000000 5.777960 0.356837 5.440243 0.058270
138.500000 5.763264 0.356885 5.425438 0.058247
139.000000 5.748670 0.356930 5.410736 0.058224
139.500000 5.734172 0.356972 5.396138 0.058202
140.000000 5.719770 0.357010 5.381642 0.058180
140.500000 5.705466 0.357046 5.367247 0.058157
141.000000 5.691260 0.357079 5.352952 0.058135
141.500000 5.677153 0.357109 5.338756 0.058113
142.000000 5.663140 0.357137 5.324658 0.058092
142.500000 5.649219 0.357162 5.310657 0.058070
143.000000 5.635390 0.357184 5.296751 0.058048
143.500000 5.621654 0.357203 5.282941 0.058027
144.000000 5.608010 0.357220 5.269224 0.058006
144.500000 5.594456 0.357235 5.255601 0.057984
145.000000 5.580990 0.357247 5.242069 0.057963
145.500000 5.567611 0.357256 5.228629 0.057942
146.000000 5.554320 0.357264 5.215278 0.057922
146.500000 5.541117 0.357269 5.202018 0.057901
147.000000 5.528000 0.357271 5.188845 0.057881
147.500000 5.514968 0.357272 5.175760 0.057860
148.000000 5.502020 0.357270 5.162762 0.057840
148.500000 5.489155 0.357266 5.149849 0.057820
149.000000 5.476370 0.357260 5.137022 0.057800
149.500000 5.463664 0.357252 5.124278 0.057780
150.000000 5.451040 0.357242 5.111618 0.057760
150.500000 5.438500 0.357230 5.099041 0.057740
151.000000 5.426040 0.357216 5.086545 0.057721
151.500000 5.413657 0.357200 5.074130 0.057701
152.000000 5.401350 0.357182 5.061795 0.057682
152.500000 5.389121 0.357162 5.049539 0.057662
153.000000 5.376970 0.357140 5.037362 0.057643
153.500000 5.364898 0.357117 5.025263 0.057624
154.000000 5.352900 0.357092 5.013241 0.057606
154.500000 5.340974 0.357065 5.001295 0.057587
155.000000 5.329120 0.357037 4.989425 0.057568
155.500000 5.317339 0.357006 4.977629 0.057550
156.000000 5.305630 0.356975 4.965908 0.057531
156.500000 5.293994 0.356941 4.954261 0.057513
157.000000 5.282430 0.356906 4.942686 0.057495
157.500000 5.270935 0.356870 4.931184 0.057477
158.000000 5.259510 0.356832 4.919752 0.057459
158.500000 5.248154 0.356792 4.908392 0.057441
159.000000 5.236870 0.356751 4.897102 0.057423
159.500000 5.225657 0.356709 4.885881 0.057405
160.000000 5.214510 0.356665 4.874729 0.057388
160.500000 5.203423 0.356620 4.863646 0.057370
161.000000 5.192400 0.356574 4.852630 0.057353
161.500000 5.181446 0.356526 4.841681 0.057336
162.000000 5.170560 0.356477 4.830798 0.057319
162.500000 5.159738 0.356427 4.819982 0.057302
163.000000 5.148980 0.356375 4.809230 0.057285
163.500000 5.138284 0.356322 4.798543 0.057268
164.000000 5.127650 0.356268 4.787920 0.057251
164.500000 5.117079 0.356213 4.777361 0.057235
165.000000 5.106570 0.356157 4.766864 0.057218
165.500000 5.096120 0.356100 4.756430 0.057202
166.000000 5.085730 0.356041 4.746057 0.057185
166.500000 5.075401 0.355981 4.735746 0.057169
167.000000 5.065130 0.355921 4.725495 0.057153
167.500000 5.054915 0.355859 4.715305 0.057137
168.000000 5.044760 0.355796 4.705174 0.057121
168.500000 5.034666 0.355732 4.695103 0.057105
169.000000 5.024630 0.355668 4.685090 0.057090
169.500000 5.014647 0.355602 4.675135 0.057074
170.000000 5.004720 0.355535 4.665237 0.057059
170.500000 4.994851 0.355468 4.655397 0.057043
171.000000 4.985040 0.355399 4.645614 0.057028
171.500000 4.975284 0.355330 4.635886 0.057013
172.000000 4.965580 0.355260 4.626214 0.056998
172.500000 4.955928 0.355189 4.616598 0.056983
173.000000 4.946330 0.355117 4.607036 0.056968
173.500000 4.936788 0.355044 4.597528 0.056953
174.000000 4.927300 0.354970 4.588074 0.056938
174.500000 4.917864 0.354896 4.578673 0.056924
175.000000 4.908480 0.354821 4.569326 0.056909
175.500000 4.899145 0.354745 4.560030 0.056895
176.000000 4.889860 0.354668 4.550787 0.056880
176.500000 4.880624 0.354591 4.541595 0.056866
177.000000 4.871440 0.354513 4.532454 0.056852
177.500000 4.862311 0.354434 4.523365 0.056838
178.000000 4.853230 0.354355 4.514325 0.056824
178.500000 4.844191 0.354275 4.505335 0.056810
179.000000 4.835200 0.354194 4.496395 0.056796
179.500000 4.826265 0.354113 4.487504 0.056783
180.000000 4.817380 0.354031 4.478661 0.056769
180.500000 4.808537 0.353948 4.469867 0.056755
181.000000 4.799740 0.353865 4.461120 0.056742
181.500000 4.790992 0.353781 4.452421 0.056729
182.000000 4.782290 0.353697 4.443769 0.056715
182.500000 4.773633 0.353612 4.435164 0.056702
183.000000 4.765020 0.353526 4.426606 0.056689
183.500000 4.756452 0.353440 4.418093 0.056676
184.000000 4.747930 0.353354 4.409625 0.056663
184.500000 4.739452 0.353266 4.401204 0.056650
185.000000 4.731020 0.353179 4.392826 0.056638
185.500000 4.722633 0.353091 4.384494 0.056625
186.000000 4.714290 0.353002 4.376206 0.056612
186.500000 4.705989 0.352913 4.367961 0.056600
187.000000 4.697730 0.352824 4.359760 0.056587
187.500000 4.689514 0.352734 4.351602 0.056575
188.000000 4.681340 0.352644 4.343487 0.056563
188.500000 4.673208 0.352553 4.335414 0.056551
189.000000 4.665120 0.352462 4.327384 0.056539
189.500000 4.657075 0.352370 4.319395 0.056527
190.000000 4.649070 0.352278 4.311448 0.056515
190.500000 4.641100 0.352186 4.303542 0.056503
191.000000 4.633170 0.352093 4.295677 0.056491
191.500000 4.625285 0.352000 4.287852 0.056480
192.000000 4.617440 0.351906 4.280067 0.056468
192.500000 4.609631 0.351813 4.272323 0.056457
193.000000 4.601860 0.351719 4.264618 0.056445
193.500000 4.594130 0.351624 4.256952 0.056434
194.000000 4.586440 0.351529 4.249326 0.056423
194.500000 4.578786 0.351434 4.241738 0.056411
195.000000 4.571170 0.351339 4.234189 0.056400
195.500000 4.563591 0.351243 4.226677 0.056389
196.000000 4.556050 0.351147 4.219204 0.056378
196.500000 4.548546 0.351051 4.211768 0.056367
197.000000 4.541080 0.350954 4.204370 0.056357
197.500000 4.533652 0.350857 4.197008 0.056346
198.000000 4.526260 0.350760 4.189683 0.056335
198.500000 4.518902 0.350663 4.182395 0.056325
199.000000 4.511580 0.350565 4.175143 0.056314
199.500000 4.504297 0.350468 4.167926 0.056304
200.000000 4.497050 0.350369 4.160746 0.056294
200.500000 4.489834 0.350271 4.153601 0.056283
201.000000 4.482650 0.350173 4.146491 0.056273
201.500000 4.475502 0.350074 4.139415 0.056263
202.000000 4.468390 0.349975 4.132375 0.056253
202.500000 4.461313 0.349876 4.125369 0.056243
203.000000 4.454270 0.349777 4.118397 0.056233
203.500000 4.447259 0.349677 4.111459 0.056223
204.000000 4.440280 0.349578 4.104554 0.056214
204.500000 4.433333 0.349478 4.097683 0.056204
205.000000 4.426420 0.349378 4.090845 0.056194
205.500000 4.419544 0.349278 4.084040 0.056185
206.000000 4.412700 0.349178 4.077268 0.056175
206.500000 4.405884 0.349077 4.070528 0.056166
207.000000 4.399100 0.348977 4.063820 0.056157
207.500000 4.392350 0.348876 4.057145 0.056148
208.000000 4.385630 0.348775 4.050501 0.056138
208.500000 4.378938 0.348674 4.043888 0.056129
209.000000 4.372280 0.348573 4.037307 0.056120
209.500000 4.365659 0.348472 4.030757 0.056111
210.000000 4.359070 0.348370 4.024238 0.056102
210.500000 4.352506 0.348269 4.017750 0.056094
211.000000 4.345970 0.348168 4.011292 0.056085
211.500000 4.339465 0.348066 4.004864 0.056076
212.000000 4.332990 0.347964 3.998466 0.056068
212.500000 4.326545 0.347863 3.992099 0.056059
213.000000 4.320130 0.347761 3.985760 0.056051
213.500000 4.313746 0.347659 3.979451 0.056042
214.000000 4.307390 0.347557 3.973172 0.056034
214.500000 4.301061 0.347455 3.966921 0.056026
215.000000 4.294760 0.347353 3.960699 0.056017
215.500000 4.288490 0.347250 3.954506 0.056009
216.000000 4.282250 0.347148 3.948341 0.056001
216.500000 4.276036 0.347046 3.942205 0.055993
217.000000 4.269850 0.346944 3.936096 0.055985
217.500000 4.263692 0.346841 3.930016 0.055977
218.000000 4.257560 0.346739 3.923963 0.055970
218.500000 4.251451 0.346636 3.917937 0.055962
219.000000 4.245370 0.346534 3.911939 0.055954
219.500000 4.239321 0.346431 3.905968 0.055946
220.000000 4.233300 0.346329 3.900023 0.055939
220.500000 4.227302 0.346226 3.894106 0.055931
221.000000 4.221330 0.346124 3.888215 0.055924
221.500000 4.215387 0.346021 3.882350 0.055917
222.000000 4.209470 0.345919 3.876512 0.055909
222.500000 4.203577 0.345816 3.870699 0.055902
223.000000 4.197710 0.345714 3.864913 0.055895
223.500000 4.191873 0.345611 3.859152 0.055888
224.000000 4.186060 0.345508 3.853417 0.055881
224.500000 4.180267 0.345406 3.847707 0.055874
225.000000 4.174500 0.345303 3.842022 0.055867
225.500000 4.168762 0.345201 3.836363 0.055860
226.000000 4.163050 0.345098 3.830728 0.055853
226.500000 4.157358 0.344996 3.825118 0.055847
227.000000 4.151690 0.344893 3.819532 0.055840
227.500000 4.146048 0.344791 3.813971 0.055833
228.000000 4.140430 0.344689 3.808434 0.055827
228.500000 4.134832 0.344586 3.802921 0.055820
229.000000 4.129260 0.344484 3.797432 0.055814
229.500000 4.123718 0.344382 3.791967 0.055807
230.000000 4.118200 0.344279 3.786525 0.055801
230.500000 4.112699 0.344177 3.781107 0.055795
231.000000 4.107220 0.344075 3.775712 0.055789
231.500000 4.101769 0.343973 3.770341 0.055782
232.000000 4.096340 0.343871 3.764992 0.055776
232.500000 4.090929 0.343769 3.759666 0.055770
233.000000 4.085540 0.343667 3.754363 0.055764
233.500000 4.080178 0.343565 3.749082 0.055758
234.000000 4.074840 0.343463 3.743824 0.055753
234.500000 4.069524 0.343361 3.738589 0.055747
235.000000 4.064230 0.343260 3.733375 0.055741
235.500000 4.058960 0.343158 3.728183 0.055735
236.000000 4.053710 0.343057 3.723014 0.055730
236.500000 4.048479 0.342955 3.717866 0.055724
237.000000 4.043270 0.342854 3.712739 0.055719
237.500000 4.038084 0.342752 3.707634 0.055713
238.000000 4.032920 0.342651 3.702551 0.055708
238.500000 4.027775 0.342550 3.697488 0.055702
239.000000 4.022650 0.342449 3.692447 0.055697
239.500000 4.017544 0.342348 3.687427 0.055692
240.000000 4.012460 0.342247 3.682427 0.055687
240.500000 4.007400 0.342146 3.677448 0.055682
241.000000 4.002360 0.342045 3.672490 0.055677
241.500000 3.997339 0.341945 3.667552 0.055671
242.000000 3.992340 0.341844 3.662635 0.055667
242.500000 3.987365 0.341744 3.657737 0.055662
243.000000 3.982410 0.341643 3.652860 0.055657
243.500000 3.977471 0.341543 3.648003 0.055652
244.000000 3.972550 0.341443 3.643165 0.055647
244.500000 3.967649 0.341343 3.638348 0.055642
245.000000 3.962770 0.341243 3.633550 0.055638
245.500000 3.957911 0.341143 3.628771 0.055633
246.000000 3.953070 0.341043 3.624012 0.055629
246.500000 3.948244 0.340944 3.619271 0.055624
247.000000 3.943440 0.340844 3.614550 0.055620
247.500000 3.938661 0.340745 3.609848 0.055615
248.000000 3.933900 0.340646 3.605165 0.055611
248.500000 3.929151 0.340546 3.600501 0.055607
249.000000 3.924420 0.340447 3.595856 0.055603
249.500000 3.919715 0.340348 3.591228 0.055598
250.000000 3.915030 0.340250 3.586620 0.055594
250.500000 3.910357 0.340151 3.582030 0.055590
251.000000 3.905700 0.340052 3.577458 0.055586
251.500000 3.901065 0.339954 3.572904 0.055582
252.000000 3.896450 0.339855 3.568368 0.055578
252.500000 3.891852 0.339757 3.563850 0.055574
253.000000 3.887270 0.339659 3.559350 0.055571
253.500000 3.882706 0.339561 3.554867 0.055567
254.000000 3.878160 0.339463 3.550403 0.055563
254.500000 3.873631 0.339366 3.545955 0.055559
255.000000 3.869120 0.339268 3.541526 0.055556
255.500000 3.864626 0.339171 3.537113 0.055552
256.000000 3.860150 0.339073 3.532718 0.055549
256.500000 3.855691 0.338976 3.528339 0.055545
257.000000 3.851250 0.338879 3.523978 0.055542
257.500000 3.846826 0.338782 3.519634 0.055538
258.000000 3.842420 0.338686 3.515306 0.055535
258.500000 3.838032 0.338589 3.510995 0.055532
259.000000 3.833660 0.338493 3.506701 0.055528
259.500000 3.829303 0.338396 3.502424 0.055525
260.000000 3.824960 0.338300 3.498162 0.055522
260.500000 3.820631 0.338204 3.493917 0.055519
261.000000 3.816320 0.338108 3.489689 0.055516
261.500000 3.812032 0.338012 3.485476 0.055513
262.000000 3.807760 0.337917 3.481280 0.055510
262.500000 3.803498 0.337821 3.477099 0.055507
263.000000 3.799250 0.337726 3.472935 0.055504
263.500000 3.795020 0.337631 3.468786 0.055501
264.000000 3.790810 0.337536 3.464653 0.055498
264.500000 3.786618 0.337441 3.460536 0.055496
265.000000 3.782440 0.337346 3.456434 0.055493
265.500000 3.778273 0.337252 3.452347 0.055490
266.000000 3.774120 0.337157 3.448276 0.055488
266.500000 3.769986 0.337063 3.444221 0.055485
267.000000 3.765870 0.336969 3.440180 0.055483
267.500000 3.761769 0.336875 3.436155 0.055480
268.000000 3.757680 0.336781 3.432144 0.055478
268.500000 3.753602 0.336687 3.428149 0.055475
269.000000 3.749540 0.336594 3.424168 0.055473
269.500000 3.745496 0.336501 3.420202 0.055471
270.000000 3.741470 0.336407 3.416251 0.055469
270.500000 3.737459 0.336314 3.412314 0.055466
271.000000 3.733460 0.336221 3.408392 0.055464
271.500000 3.729473 0.336129 3.404485 0.055462
272.000000 3.725500 0.336036 3.400592 0.055460
272.500000 3.721542 0.335944 3.396713 0.055458
273.000000 3.717600 0.335852 3.392848 0.055456
273.500000 3.713672 0.335759 3.388998 0.055454
274.000000 3.709760 0.335668 3.385161 0.055452
274.500000 3.705863 0.335576 3.381339 0.055450
275.000000 3.701980 0.335484 3.377530 0.055448
275.500000 3.698109 0.335393 3.373736 0.055447
276.000000 3.694250 0.335302 3.369955 0.055445
276.500000 3.690402 0.335210 3.366188 0.055443
277.000000 3.686570 0.335119 3.362434 0.055442
277.500000 3.682758 0.335029 3.358694 0.055440
278.000000 3.678960 0.334938 3.354968 0.055438
278.500000 3.675169 0.334848 3.351255 0.055437
279.000000 3.671390 0.334757 3.347555 0.055435
279.500000 3.667628 0.334667 3.343868 0.055434
280.000000 3.663880 0.334577 3.340195 0.055433
280.500000 3.660144 0.334488 3.336535 0.055431
281.000000 3.656420 0.334398 3.332888 0.055430
281.500000 3.652708 0.334309 3.329254 0.055429
282.000000 3.649010 0.334219 3.325633 0.055427
282.500000 3.645328 0.334130 3.322024 0.055426
283.000000 3.641660 0.334041 3.318429 0.055425
283.500000 3.638004 0.333952 3.314846 0.055424
284.000000 3.634360 0.333864 3.311276 0.055423
284.500000 3.630730 0.333775 3.307719 0.055422
285.000000 3.627110 0.333687 3.304174 0.055421
285.500000 3.623499 0.333599 3.300641 0.055420
286.000000 3.619900 0.333511 3.297121 0.055419
286.500000 3.616318 0.333423 3.293613 0.055418
287.000000 3.612750 0.333336 3.290118 0.055417
287.500000 3.609194 0.333248 3.286634 0.055416
288.000000 3.605650 0.333161 3.283163 0.055415
288.500000 3.602119 0.333074 3.279704 0.055415
289.000000 3.598600 0.332987 3.276257 0.055414
289.500000 3.595090 0.332900 3.272822 0.055413
290.000000 3.591590 0.332814 3.269399 0.055413
290.500000 3.588104 0.332728 3.265987 0.055412
291.000000 3.584630 0.332641 3.262588 0.055412
291.500000 3.581169 0.332555 3.259200 0.055411
292.000000 3.577720 0.332469 3.255824 0.055411
292.500000 3.574285 0.332384 3.252459 0.055410
293.000000 3.570860 0.332298 3.249106 0.055410
293.500000 3.567444 0.332213 3.245764 0.055409
294.000000 3.564040 0.332128 3.242434 0.055409
294.500000 3.560649 0.332043 3.239115 0.055409
295.000000 3.557270 0.331958 3.235808 0.055408
295.500000 3.553900 0.331873 3.232512 0.055408
296.000000 3.550540 0.331789 3.229227 0.055408
296.500000 3.547193 0.331704 3.225953 0.055408
297.000000 3.543860 0.331620 3.222690 0.055408
297.500000 3.540539 0.331536 3.219438 0.055408
298.000000 3.537230 0.331453 3.216198 0.055408
298.500000 3.533930 0.331369 3.212968 0.055408
299.000000 3.530640 0.331286 3.209749 0.055408
299.500000 3.527360 0.331202 3.206541 0.055408
300.000000 3.524090 0.331119 3.203343 0.055408
300.500000 3.520829 0.331036 3.200157 0.055408
301.000000 3.517580 0.330954 3.196981 0.055408
301.500000 3.514344 0.330871 3.193815 0.055408
302.000000 3.511120 0.330789 3.190660 0.055409
302.500000 3.507904 0.330706 3.187516 0.055409
303.000000 3.504700 0.330624 3.184382 0.055409
303.500000 3.501510 0.330542 3.181259 0.055410
304.000000 3.498330 0.330461 3.178145 0.055410
304.500000 3.495155 0.330379 3.175043 0.055410
305.000000 3.491990 0.330298 3.171950 0.055411
305.500000 3.488839 0.330217 3.168868 0.055411
306.000000 3.485700 0.330136 3.165795 0.055412
306.500000 3.482571 0.330055 3.162733 0.055412
307.000000 3.479450 0.329974 3.159681 0.055413
307.500000 3.476335 0.329894 3.156639 0.055414
308.000000 3.473230 0.329814 3.153607 0.055414
308.500000 3.470139 0.329733 3.150585 0.055415
309.000000 3.467060 0.329654 3.147572 0.055416
309.500000 3.463990 0.329574 3.144570 0.055416
310.000000 3.460930 0.329494 3.141577 0.055417
310.500000 3.457881 0.329415 3.138594 0.055418
311.000000 3.454840 0.329335 3.135621 0.055419
311.500000 3.451805 0.329256 3.132657 0.055420
312.000000 3.448780 0.329178 3.129703 0.055421
312.500000 3.445770 0.329099 3.126758 0.055421
313.000000 3.442770 0.329020 3.123823 0.055422
313.500000 3.439776 0.328942 3.120897 0.055423
314.000000 3.436790 0.328864 3.117981 0.055424
314.500000 3.433815 0.328786 3.115074 0.055426
315.000000 3.430850 0.328708 3.112176 0.055427
315.500000 3.427895 0.328630 3.109288 0.055428
316.000000 3.424950 0.328553 3.106409 0.055429
316.500000 3.422015 0.328475 3.103539 0.055430
317.000000 3.419090 0.328398 3.100678 0.055431
317.500000 3.416176 0.328321 3.097827 0.055433
318.000000 3.413270 0.328244 3.094984 0.055434
318.500000 3.410372 0.328168 3.092150 0.055435
319.000000 3.407480 0.328091 3.089326 0.055437
319.500000 3.404595 0.328015 3.086510 0.055438
320.000000 3.401720 0.327939 3.083703 0.055439
320.500000 3.398860 0.327863 3.080905 0.055441
321.000000 3.396010 0.327787 3.078116 0.055442
321.500000 3.393167 0.327712 3.075336 0.055444
322.000000 3.390330 0.327636 3.072564 0.055445
322.500000 3.387500 0.327561 3.069801 0.055447
323.000000 3.384680 0.327486 3.067047 0.055448
323.500000 3.381871 0.327411 3.064301 0.055450
324.000000 3.379070 0.327336 3.061564 0.055452
324.500000 3.376276 0.327262 3.058836 0.055453
325.000000 3.373490 0.327187 3.056116 0.055455
325.500000 3.370716 0.327113 3.053404 0.055457
326.000000 3.367950 0.327039 3.050701 0.055459
326.500000 3.365191 0.326965 3.048006 0.055460
327.000000 3.362440 0.326891 3.045319 0.055462
327.500000 3.359700 0.326818 3.042641 0.055464
328.000000 3.356970 0.326744 3.039971 0.055466
328.500000 3.354246 0.326671 3.037309 0.055468
329.000000 3.351530 0.326598 3.034656 0.055470
329.500000 3.348821 0.326525 3.032011 0.055472
330.000000 3.346120 0.326453 3.029373 0.055474
330.500000 3.343425 0.326380 3.026744 0.055476
331.000000 3.340740 0.326308 3.024123 0.055478
331.500000 3.338065 0.326236 3.021510 0.055480
332.000000 3.335400 0.326164 3.018905 0.055482
332.500000 3.332742 0.326092 3.016308 0.055484
333.000000 3.330090 0.326020 3.013718 0.055486
333.500000 3.327445 0.325949 3.011137 0.055488
334.000000 3.324810 0.325877 3.008563 0.055491
334.500000 3.322186 0.325806 3.005997 0.055493
335.000000 3.319570 0.325735 3.003439 0.055495
335.500000 3.316957 0.325664 3.000889 0.055497
336.000000 3.314350 0.325594 2.998346 0.055500
336.500000 3.311755 0.325523 2.995811 0.055502
337.000000 3.309170 0.325453 2.993284 0.055504
337.500000 3.306593 0.325383 2.990764 0.055507
338.000000 3.304020 0.325313 2.988252 0.055509
338.500000 3.301451 0.325243 2.985748 0.055512
339.000000 3.298890 0.325173 2.983250 0.055514
339.500000 3.296340 0.325104 2.980761 0.055517
340.000000 3.293800 0.325035 2.978278 0.055519
340.500000 3.291267 0.324965 2.975804 0.055522
341.000000 3.288740 0.324896 2.973336 0.055524
341.500000 3.286221 0.324828 2.970876 0.055527
342.000000 3.283710 0.324759 2.968423 0.055530
342.500000 3.281207 0.324690 2.965977 0.055532
343.000000 3.278710 0.324622 2.963539 0.055535
343.500000 3.276216 0.324554 2.961108 0.055538
344.000000 3.273730 0.324486 2.958684 0.055541
344.500000 3.271255 0.324418 2.956267 0.055543
345.000000 3.268790 0.324350 2.953857 0.055546
345.500000 3.266332 0.324283 2.951455 0.055549
346.000000 3.263880 0.324216 2.949059 0.055552
346.500000 3.261432 0.324148 2.946671 0.055555
347.000000 3.258990 0.324081 2.944289 0.055558
347.500000 3.256556 0.324015 2.941914 0.055560
348.000000 3.254130 0.323948 2.939547 0.055563
348.500000 3.251711 0.323881 2.937186 0.055566
349.000000 3.249300 0.323815 2.934832 0.055569
349.500000 3.246896 0.323749 2.932485 0.055572
350.000000 3.244500 0.323683 2.930145 0.055611
